# FTIR Spektrometer Daten
# Datum: 2024-01-15
# Operator: Dr. Schmidt
# Instrument: Bruker FTIR Alpha
Wellenzahl (cm-1);Absorption
4000,000;0,032
3997,598;0,010
3995,197;0,013
3992,795;0,001
3990,394;0,013
3987,992;0,035
3985,590;0,006
3983,189;0,003
3980,787;0,041
3978,386;0,024
3975,984;0,008
3973,582;0,046
3971,181;0,027
3968,779;0,047
3966,378;0,007
3963,976;0,021
3961,574;0,001
3959,173;0,017
3956,771;0,001
3954,370;0,029
3951,968;0,006
3949,566;0,029
3947,165;0,058
3944,763;0,003
3942,362;0,005
3939,960;0,026
3937,558;0,001
3935,157;0,031
3932,755;0,001
3930,354;0,029
3927,952;0,026
3925,550;0,002
3923,149;0,001
3920,747;0,034
3918,346;0,017
3915,944;0,006
3913,542;0,030
3911,141;0,033
3908,739;0,001
3906,338;0,002
3903,936;0,001
3901,534;0,008
3899,133;0,016
3896,731;0,001
3894,330;0,018
3891,928;0,001
3889,526;0,032
3887,125;0,014
3884,723;0,034
3882,322;0,026
3879,920;0,001
3877,518;0,017
3875,117;0,019
3872,715;0,030
3870,314;0,001
3867,912;0,017
3865,510;0,031
3863,109;0,029
3860,707;0,026
3858,306;0,016
3855,904;0,028
3853,502;0,036
3851,101;0,001
3848,699;0,037
3846,298;0,001
3843,896;0,001
3841,494;0,008
3839,093;0,036
3836,691;0,019
3834,290;0,042
3831,888;0,013
3829,486;0,012
3827,085;0,001
3824,683;0,042
3822,282;0,024
3819,880;0,030
3817,478;0,023
3815,077;0,014
3812,675;0,019
3810,274;0,030
3807,872;0,022
3805,470;0,001
3803,069;0,007
3800,667;0,027
3798,266;0,001
3795,864;0,001
3793,462;0,001
3791,061;0,049
3788,659;0,038
3786,258;0,044
3783,856;0,001
3781,454;0,033
3779,053;0,001
3776,651;0,018
3774,249;0,001
3771,848;0,001
3769,446;0,006
3767,045;0,024
3764,643;0,032
3762,241;0,035
3759,840;0,009
3757,438;0,032
3755,037;0,004
3752,635;0,018
3750,233;0,026
3747,832;0,001
3745,430;0,001
3743,029;0,011
3740,627;0,001
3738,225;0,008
3735,824;0,021
3733,422;0,001
3731,021;0,001
3728,619;0,001
3726,217;0,052
3723,816;0,001
3721,414;0,024
3719,013;0,042
3716,611;0,041
3714,209;0,008
3711,808;0,006
3709,406;0,014
3707,005;0,019
3704,603;0,033
3702,201;0,022
3699,800;0,010
3697,398;0,001
3694,997;0,047
3692,595;0,033
3690,193;0,033
3687,792;0,020
3685,390;0,015
3682,989;0,029
3680,587;0,007
3678,185;0,013
3675,784;0,014
3673,382;0,017
3670,981;0,013
3668,579;0,003
3666,177;0,001
3663,776;0,001
3661,374;0,001
3658,973;0,023
3656,571;0,017
3654,169;0,001
3651,768;0,001
3649,366;0,017
3646,965;0,038
3644,563;0,001
3642,161;0,021
3639,760;0,023
3637,358;0,006
3634,957;0,001
3632,555;0,001
3630,153;0,030
3627,752;0,001
3625,350;0,001
3622,949;0,046
3620,547;0,003
3618,145;0,046
3615,744;0,006
3613,342;0,001
3610,941;0,003
3608,539;0,016
3606,137;0,052
3603,736;0,001
3601,334;0,036
3598,933;0,015
3596,531;0,063
3594,129;0,055
3591,728;0,001
3589,326;0,001
3586,925;0,001
3584,523;0,001
3582,121;0,009
3579,720;0,003
3577,318;0,058
3574,917;0,026
3572,515;0,014
3570,113;0,011
3567,712;0,025
3565,310;0,037
3562,909;0,047
3560,507;0,070
3558,105;0,019
3555,704;0,009
3553,302;0,042
3550,901;0,039
3548,499;0,040
3546,097;0,023
3543,696;0,005
3541,294;0,001
3538,893;0,028
3536,491;0,018
3534,089;0,032
3531,688;0,001
3529,286;0,036
3526,885;0,006
3524,483;0,005
3522,081;0,027
3519,680;0,013
3517,278;0,001
3514,877;0,001
3512,475;0,036
3510,073;0,024
3507,672;0,016
3505,270;0,001
3502,869;0,027
3500,467;0,006
3498,065;0,001
3495,664;0,001
3493,262;0,041
3490,861;0,001
3488,459;0,017
3486,057;0,001
3483,656;0,022
3481,254;0,012
3478,853;0,001
3476,451;0,031
3474,049;0,041
3471,648;0,059
3469,246;0,019
3466,845;0,001
3464,443;0,001
3462,041;0,007
3459,640;0,008
3457,238;0,026
3454,837;0,038
3452,435;0,001
3450,033;0,002
3447,632;0,001
3445,230;0,022
3442,829;0,021
3440,427;0,023
3438,025;0,025
3435,624;0,015
3433,222;0,026
3430,821;0,001
3428,419;0,026
3426,017;0,008
3423,616;0,023
3421,214;0,005
3418,813;0,009
3416,411;0,016
3414,009;0,032
3411,608;0,008
3409,206;0,001
3406,805;0,011
3404,403;0,017
3402,001;0,001
3399,600;0,002
3397,198;0,026
3394,797;0,011
3392,395;0,002
3389,993;0,004
3387,592;0,018
3385,190;0,029
3382,789;0,009
3380,387;0,013
3377,985;0,001
3375,584;0,051
3373,182;0,001
3370,781;0,001
3368,379;0,017
3365,977;0,015
3363,576;0,003
3361,174;0,009
3358,773;0,021
3356,371;0,011
3353,969;0,005
3351,568;0,001
3349,166;0,001
3346,765;0,019
3344,363;0,001
3341,961;0,023
3339,560;0,066
3337,158;0,001
3334,757;0,002
3332,355;0,022
3329,953;0,034
3327,552;0,022
3325,150;0,007
3322,748;0,045
3320,347;0,053
3317,945;0,049
3315,544;0,115
3313,142;0,218
3310,740;0,343
3308,339;0,525
3305,937;0,675
3303,536;0,832
3301,134;0,908
3298,732;0,915
3296,331;0,801
3293,929;0,685
3291,528;0,535
3289,126;0,388
3286,724;0,232
3284,323;0,132
3281,921;0,067
3279,520;0,015
3277,118;0,079
3274,716;0,027
3272,315;0,005
3269,913;0,001
3267,512;0,010
3265,110;0,001
3262,708;0,016
3260,307;0,012
3257,905;0,001
3255,504;0,001
3253,102;0,001
3250,700;0,008
3248,299;0,001
3245,897;0,004
3243,496;0,013
3241,094;0,049
3238,692;0,033
3236,291;0,001
3233,889;0,006
3231,488;0,016
3229,086;0,034
3226,684;0,001
3224,283;0,021
3221,881;0,020
3219,480;0,030
3217,078;0,001
3214,676;0,032
3212,275;0,001
3209,873;0,001
3207,472;0,001
3205,070;0,014
3202,668;0,001
3200,267;0,022
3197,865;0,007
3195,464;0,011
3193,062;0,033
3190,660;0,001
3188,259;0,001
3185,857;0,011
3183,456;0,019
3181,054;0,035
3178,652;0,035
3176,251;0,002
3173,849;0,035
3171,448;0,015
3169,046;0,001
3166,644;0,001
3164,243;0,003
3161,841;0,001
3159,440;0,008
3157,038;0,019
3154,636;0,001
3152,235;0,025
3149,833;0,024
3147,432;0,001
3145,030;0,004
3142,628;0,030
3140,227;0,019
3137,825;0,022
3135,424;0,024
3133,022;0,016
3130,620;0,001
3128,219;0,024
3125,817;0,002
3123,416;0,032
3121,014;0,001
3118,612;0,011
3116,211;0,020
3113,809;0,034
3111,408;0,029
3109,006;0,038
3106,604;0,001
3104,203;0,037
3101,801;0,036
3099,400;0,050
3096,998;0,011
3094,596;0,015
3092,195;0,021
3089,793;0,022
3087,392;0,005
3084,990;0,004
3082,588;0,007
3080,187;0,010
3077,785;0,033
3075,384;0,002
3072,982;0,001
3070,580;0,001
3068,179;0,009
3065,777;0,037
3063,376;0,001
3060,974;0,014
3058,572;0,017
3056,171;0,031
3053,769;0,018
3051,368;0,007
3048,966;0,001
3046,564;0,001
3044,163;0,010
3041,761;0,001
3039,360;0,001
3036,958;0,008
3034,556;0,001
3032,155;0,001
3029,753;0,015
3027,352;0,020
3024,950;0,011
3022,548;0,027
3020,147;0,001
3017,745;0,001
3015,344;0,038
3012,942;0,024
3010,540;0,041
3008,139;0,011
3005,737;0,010
3003,336;0,001
3000,934;0,001
2998,532;0,006
2996,131;0,019
2993,729;0,011
2991,328;0,041
2988,926;0,018
2986,524;0,003
2984,123;0,036
2981,721;0,062
2979,320;0,044
2976,918;0,094
2974,516;0,160
2972,115;0,178
2969,713;0,237
2967,312;0,298
2964,910;0,386
2962,508;0,442
2960,107;0,512
2957,705;0,587
2955,304;0,625
2952,902;0,700
2950,500;0,672
2948,099;0,651
2945,697;0,632
2943,296;0,620
2940,894;0,573
2938,492;0,502
2936,091;0,421
2933,689;0,299
2931,288;0,288
2928,886;0,233
2926,484;0,191
2924,083;0,126
2921,681;0,057
2919,280;0,074
2916,878;0,081
2914,476;0,044
2912,075;0,017
2909,673;0,039
2907,272;0,008
2904,870;0,010
2902,468;0,001
2900,067;0,001
2897,665;0,004
2895,264;0,011
2892,862;0,021
2890,460;0,023
2888,059;0,001
2885,657;0,001
2883,256;0,001
2880,854;0,018
2878,452;0,027
2876,051;0,034
2873,649;0,072
2871,247;0,009
2868,846;0,027
2866,444;0,034
2864,043;0,012
2861,641;0,001
2859,239;0,037
2856,838;0,001
2854,436;0,001
2852,035;0,019
2849,633;0,045
2847,231;0,001
2844,830;0,014
2842,428;0,018
2840,027;0,012
2837,625;0,001
2835,223;0,001
2832,822;0,001
2830,420;0,014
2828,019;0,008
2825,617;0,014
2823,215;0,022
2820,814;0,024
2818,412;0,001
2816,011;0,001
2813,609;0,002
2811,207;0,037
2808,806;0,001
2806,404;0,001
2804,003;0,026
2801,601;0,008
2799,199;0,001
2796,798;0,001
2794,396;0,001
2791,995;0,001
2789,593;0,004
2787,191;0,001
2784,790;0,021
2782,388;0,001
2779,987;0,029
2777,585;0,018
2775,183;0,005
2772,782;0,006
2770,380;0,025
2767,979;0,020
2765,577;0,004
2763,175;0,016
2760,774;0,056
2758,372;0,027
2755,971;0,028
2753,569;0,008
2751,167;0,001
2748,766;0,043
2746,364;0,017
2743,963;0,027
2741,561;0,005
2739,159;0,001
2736,758;0,001
2734,356;0,001
2731,955;0,014
2729,553;0,003
2727,151;0,017
2724,750;0,001
2722,348;0,025
2719,947;0,001
2717,545;0,019
2715,143;0,021
2712,742;0,001
2710,340;0,044
2707,939;0,001
2705,537;0,033
2703,135;0,013
2700,734;0,033
2698,332;0,001
2695,931;0,001
2693,529;0,042
2691,127;0,001
2688,726;0,001
2686,324;0,001
2683,923;0,027
2681,521;0,015
2679,119;0,018
2676,718;0,024
2674,316;0,018
2671,915;0,035
2669,513;0,025
2667,111;0,001
2664,710;0,001
2662,308;0,001
2659,907;0,001
2657,505;0,007
2655,103;0,052
2652,702;0,057
2650,300;0,026
2647,899;0,001
2645,497;0,008
2643,095;0,001
2640,694;0,001
2638,292;0,001
2635,891;0,001
2633,489;0,014
2631,087;0,009
2628,686;0,011
2626,284;0,008
2623,883;0,028
2621,481;0,012
2619,079;0,058
2616,678;0,001
2614,276;0,001
2611,875;0,051
2609,473;0,001
2607,071;0,018
2604,670;0,015
2602,268;0,001
2599,867;0,043
2597,465;0,019
2595,063;0,020
2592,662;0,001
2590,260;0,001
2587,859;0,035
2585,457;0,001
2583,055;0,004
2580,654;0,008
2578,252;0,052
2575,851;0,006
2573,449;0,016
2571,047;0,016
2568,646;0,001
2566,244;0,023
2563,843;0,001
2561,441;0,025
2559,039;0,023
2556,638;0,031
2554,236;0,012
2551,835;0,001
2549,433;0,001
2547,031;0,005
2544,630;0,001
2542,228;0,003
2539,827;0,001
2537,425;0,021
2535,023;0,001
2532,622;0,001
2530,220;0,033
2527,819;0,001
2525,417;0,008
2523,015;0,001
2520,614;0,014
2518,212;0,004
2515,811;0,010
2513,409;0,012
2511,007;0,001
2508,606;0,027
2506,204;0,001
2503,803;0,002
2501,401;0,010
2498,999;0,001
2496,598;0,002
2494,196;0,007
2491,795;0,008
2489,393;0,031
2486,991;0,001
2484,590;0,001
2482,188;0,006
2479,787;0,016
2477,385;0,003
2474,983;0,001
2472,582;0,021
2470,180;0,031
2467,779;0,006
2465,377;0,037
2462,975;0,009
2460,574;0,016
2458,172;0,001
2455,771;0,025
2453,369;0,023
2450,967;0,004
2448,566;0,001
2446,164;0,058
2443,763;0,033
2441,361;0,034
2438,959;0,001
2436,558;0,007
2434,156;0,001
2431,755;0,001
2429,353;0,033
2426,951;0,001
2424,550;0,025
2422,148;0,001
2419,746;0,004
2417,345;0,008
2414,943;0,001
2412,542;0,053
2410,140;0,001
2407,738;0,001
2405,337;0,018
2402,935;0,001
2400,534;0,027
2398,132;0,001
2395,730;0,008
2393,329;0,001
2390,927;0,001
2388,526;0,018
2386,124;0,040
2383,722;0,024
2381,321;0,001
2378,919;0,005
2376,518;0,024
2374,116;0,001
2371,714;0,022
2369,313;0,002
2366,911;0,037
2364,510;0,010
2362,108;0,017
2359,706;0,009
2357,305;0,001
2354,903;0,021
2352,502;0,001
2350,100;0,030
2347,698;0,002
2345,297;0,023
2342,895;0,026
2340,494;0,025
2338,092;0,022
2335,690;0,001
2333,289;0,001
2330,887;0,009
2328,486;0,001
2326,084;0,019
2323,682;0,029
2321,281;0,001
2318,879;0,001
2316,478;0,039
2314,076;0,014
2311,674;0,001
2309,273;0,017
2306,871;0,001
2304,470;0,022
2302,068;0,026
2299,666;0,001
2297,265;0,035
2294,863;0,010
2292,462;0,024
2290,060;0,001
2287,658;0,001
2285,257;0,001
2282,855;0,001
2280,454;0,002
2278,052;0,008
2275,650;0,001
2273,249;0,008
2270,847;0,002
2268,446;0,001
2266,044;0,001
2263,642;0,024
2261,241;0,001
2258,839;0,002
2256,438;0,005
2254,036;0,001
2251,634;0,001
2249,233;0,026
2246,831;0,004
2244,430;0,021
2242,028;0,001
2239,626;0,001
2237,225;0,017
2234,823;0,030
2232,422;0,003
2230,020;0,001
2227,618;0,035
2225,217;0,009
2222,815;0,001
2220,414;0,013
2218,012;0,001
2215,610;0,026
2213,209;0,004
2210,807;0,001
2208,406;0,019
2206,004;0,015
2203,602;0,016
2201,201;0,025
2198,799;0,008
2196,398;0,017
2193,996;0,001
2191,594;0,005
2189,193;0,001
2186,791;0,001
2184,390;0,032
2181,988;0,001
2179,586;0,035
2177,185;0,007
2174,783;0,005
2172,382;0,045
2169,980;0,001
2167,578;0,026
2165,177;0,001
2162,775;0,025
2160,374;0,001
2157,972;0,001
2155,570;0,040
2153,169;0,006
2150,767;0,020
2148,366;0,025
2145,964;0,043
2143,562;0,001
2141,161;0,031
2138,759;0,009
2136,358;0,001
2133,956;0,001
2131,554;0,010
2129,153;0,042
2126,751;0,039
2124,350;0,001
2121,948;0,003
2119,546;0,023
2117,145;0,007
2114,743;0,001
2112,342;0,014
2109,940;0,023
2107,538;0,001
2105,137;0,037
2102,735;0,022
2100,334;0,027
2097,932;0,001
2095,530;0,012
2093,129;0,001
2090,727;0,001
2088,326;0,001
2085,924;0,028
2083,522;0,004
2081,121;0,001
2078,719;0,005
2076,318;0,001
2073,916;0,001
2071,514;0,015
2069,113;0,010
2066,711;0,012
2064,310;0,001
2061,908;0,001
2059,506;0,001
2057,105;0,004
2054,703;0,001
2052,302;0,001
2049,900;0,037
2047,498;0,001
2045,097;0,001
2042,695;0,044
2040,294;0,001
2037,892;0,002
2035,490;0,011
2033,089;0,002
2030,687;0,014
2028,286;0,005
2025,884;0,018
2023,482;0,010
2021,081;0,019
2018,679;0,005
2016,278;0,004
2013,876;0,036
2011,474;0,005
2009,073;0,002
2006,671;0,013
2004,270;0,001
2001,868;0,005
1999,466;0,009
1997,065;0,001
1994,663;0,034
1992,262;0,016
1989,860;0,023
1987,458;0,001
1985,057;0,014
1982,655;0,013
1980,254;0,041
1977,852;0,033
1975,450;0,015
1973,049;0,001
1970,647;0,001
1968,245;0,004
1965,844;0,016
1963,442;0,019
1961,041;0,022
1958,639;0,001
1956,237;0,005
1953,836;0,001
1951,434;0,016
1949,033;0,012
1946,631;0,002
1944,229;0,016
1941,828;0,001
1939,426;0,052
1937,025;0,006
1934,623;0,001
1932,221;0,042
1929,820;0,001
1927,418;0,017
1925,017;0,011
1922,615;0,025
1920,213;0,028
1917,812;0,001
1915,410;0,010
1913,009;0,001
1910,607;0,001
1908,205;0,001
1905,804;0,001
1903,402;0,006
1901,001;0,013
1898,599;0,003
1896,197;0,012
1893,796;0,001
1891,394;0,015
1888,993;0,013
1886,591;0,001
1884,189;0,008
1881,788;0,020
1879,386;0,025
1876,985;0,007
1874,583;0,001
1872,181;0,017
1869,780;0,039
1867,378;0,028
1864,977;0,001
1862,575;0,001
1860,173;0,002
1857,772;0,038
1855,370;0,006
1852,969;0,033
1850,567;0,023
1848,165;0,001
1845,764;0,012
1843,362;0,014
1840,961;0,001
1838,559;0,001
1836,157;0,001
1833,756;0,012
1831,354;0,001
1828,953;0,046
1826,551;0,009
1824,149;0,007
1821,748;0,019
1819,346;0,001
1816,945;0,001
1814,543;0,025
1812,141;0,001
1809,740;0,033
1807,338;0,032
1804,937;0,029
1802,535;0,001
1800,133;0,027
1797,732;0,003
1795,330;0,001
1792,929;0,008
1790,527;0,032
1788,125;0,036
1785,724;0,024
1783,322;0,006
1780,921;0,001
1778,519;0,021
1776,117;0,048
1773,716;0,018
1771,314;0,013
1768,913;0,001
1766,511;0,014
1764,109;0,001
1761,708;0,043
1759,306;0,001
1756,905;0,039
1754,503;0,016
1752,101;0,001
1749,700;0,001
1747,298;0,016
1744,897;0,039
1742,495;0,001
1740,093;0,037
1737,692;0,005
1735,290;0,011
1732,889;0,008
1730,487;0,017
1728,085;0,038
1725,684;0,001
1723,282;0,001
1720,881;0,017
1718,479;0,026
1716,077;0,001
1713,676;0,001
1711,274;0,015
1708,873;0,003
1706,471;0,013
1704,069;0,007
1701,668;0,017
1699,266;0,038
1696,865;0,022
1694,463;0,089
1692,061;0,096
1689,660;0,133
1687,258;0,145
1684,857;0,147
1682,455;0,213
1680,053;0,219
1677,652;0,292
1675,250;0,374
1672,849;0,368
1670,447;0,481
1668,045;0,547
1665,644;0,577
1663,242;0,644
1660,841;0,684
1658,439;0,780
1656,037;0,765
1653,636;0,791
1651,234;0,808
1648,833;0,795
1646,431;0,762
1644,029;0,760
1641,628;0,736
1639,226;0,681
1636,825;0,638
1634,423;0,622
1632,021;0,500
1629,620;0,488
1627,218;0,397
1624,817;0,347
1622,415;0,319
1620,013;0,245
1617,612;0,210
1615,210;0,193
1612,809;0,152
1610,407;0,114
1608,005;0,057
1605,604;0,083
1603,202;0,066
1600,801;0,038
1598,399;0,015
1595,997;0,016
1593,596;0,004
1591,194;0,017
1588,793;0,001
1586,391;0,001
1583,989;0,007
1581,588;0,005
1579,186;0,001
1576,785;0,001
1574,383;0,016
1571,981;0,001
1569,580;0,001
1567,178;0,005
1564,777;0,013
1562,375;0,001
1559,973;0,001
1557,572;0,029
1555,170;0,016
1552,769;0,032
1550,367;0,019
1547,965;0,027
1545,564;0,001
1543,162;0,010
1540,761;0,023
1538,359;0,001
1535,957;0,001
1533,556;0,060
1531,154;0,017
1528,753;0,001
1526,351;0,016
1523,949;0,010
1521,548;0,021
1519,146;0,001
1516,744;0,009
1514,343;0,006
1511,941;0,001
1509,540;0,010
1507,138;0,005
1504,736;0,002
1502,335;0,001
1499,933;0,001
1497,532;0,001
1495,130;0,004
1492,728;0,051
1490,327;0,001
1487,925;0,027
1485,524;0,004
1483,122;0,015
1480,720;0,015
1478,319;0,011
1475,917;0,038
1473,516;0,015
1471,114;0,001
1468,712;0,023
1466,311;0,041
1463,909;0,090
1461,508;0,201
1459,106;0,258
1456,704;0,415
1454,303;0,528
1451,901;0,596
1449,500;0,587
1447,098;0,529
1444,696;0,464
1442,295;0,359
1439,893;0,223
1437,492;0,154
1435,090;0,069
1432,688;0,055
1430,287;0,008
1427,885;0,017
1425,484;0,023
1423,082;0,001
1420,680;0,001
1418,279;0,001
1415,877;0,039
1413,476;0,001
1411,074;0,037
1408,672;0,025
1406,271;0,004
1403,869;0,001
1401,468;0,010
1399,066;0,001
1396,664;0,019
1394,263;0,023
1391,861;0,001
1389,460;0,022
1387,058;0,027
1384,656;0,001
1382,255;0,001
1379,853;0,003
1377,452;0,001
1375,050;0,021
1372,648;0,025
1370,247;0,024
1367,845;0,012
1365,444;0,002
1363,042;0,007
1360,640;0,001
1358,239;0,001
1355,837;0,014
1353,436;0,043
1351,034;0,001
1348,632;0,001
1346,231;0,001
1343,829;0,004
1341,428;0,001
1339,026;0,001
1336,624;0,012
1334,223;0,008
1331,821;0,039
1329,420;0,001
1327,018;0,022
1324,616;0,001
1322,215;0,020
1319,813;0,001
1317,412;0,001
1315,010;0,006
1312,608;0,001
1310,207;0,012
1307,805;0,004
1305,404;0,008
1303,002;0,016
1300,600;0,001
1298,199;0,007
1295,797;0,012
1293,396;0,019
1290,994;0,001
1288,592;0,001
1286,191;0,001
1283,789;0,022
1281,388;0,025
1278,986;0,009
1276,584;0,001
1274,183;0,041
1271,781;0,063
1269,380;0,051
1266,978;0,001
1264,576;0,001
1262,175;0,021
1259,773;0,001
1257,372;0,002
1254,970;0,001
1252,568;0,006
1250,167;0,023
1247,765;0,019
1245,364;0,001
1242,962;0,001
1240,560;0,001
1238,159;0,001
1235,757;0,033
1233,356;0,015
1230,954;0,048
1228,552;0,001
1226,151;0,003
1223,749;0,001
1221,348;0,001
1218,946;0,003
1216,544;0,035
1214,143;0,014
1211,741;0,001
1209,340;0,001
1206,938;0,011
1204,536;0,002
1202,135;0,001
1199,733;0,001
1197,332;0,001
1194,930;0,022
1192,528;0,017
1190,127;0,010
1187,725;0,016
1185,324;0,003
1182,922;0,001
1180,520;0,002
1178,119;0,024
1175,717;0,015
1173,316;0,002
1170,914;0,001
1168,512;0,018
1166,111;0,033
1163,709;0,017
1161,308;0,001
1158,906;0,007
1156,504;0,021
1154,103;0,001
1151,701;0,018
1149,300;0,001
1146,898;0,001
1144,496;0,001
1142,095;0,001
1139,693;0,053
1137,292;0,021
1134,890;0,029
1132,488;0,014
1130,087;0,004
1127,685;0,001
1125,284;0,014
1122,882;0,016
1120,480;0,013
1118,079;0,029
1115,677;0,002
1113,276;0,060
1110,874;0,001
1108,472;0,002
1106,071;0,010
1103,669;0,022
1101,268;0,007
1098,866;0,038
1096,464;0,032
1094,063;0,027
1091,661;0,064
1089,260;0,075
1086,858;0,066
1084,456;0,102
1082,055;0,116
1079,653;0,184
1077,252;0,178
1074,850;0,255
1072,448;0,284
1070,047;0,333
1067,645;0,391
1065,243;0,452
1062,842;0,514
1060,440;0,586
1058,039;0,631
1055,637;0,663
1053,235;0,643
1050,834;0,657
1048,432;0,734
1046,031;0,673
1043,629;0,649
1041,227;0,636
1038,826;0,540
1036,424;0,525
1034,023;0,478
1031,621;0,366
1029,219;0,315
1026,818;0,300
1024,416;0,229
1022,015;0,160
1019,613;0,112
1017,211;0,138
1014,810;0,107
1012,408;0,069
1010,007;0,065
1007,605;0,038
1005,203;0,001
1002,802;0,018
1000,400;0,013
997,999;0,001
995,597;0,001
993,195;0,042
990,794;0,007
988,392;0,004
985,991;0,001
983,589;0,007
981,187;0,001
978,786;0,001
976,384;0,015
973,983;0,001
971,581;0,001
969,179;0,001
966,778;0,001
964,376;0,001
961,975;0,001
959,573;0,031
957,171;0,001
954,770;0,001
952,368;0,031
949,967;0,001
947,565;0,005
945,163;0,001
942,762;0,006
940,360;0,009
937,959;0,001
935,557;0,027
933,155;0,002
930,754;0,001
928,352;0,006
925,951;0,022
923,549;0,015
921,147;0,017
918,746;0,001
916,344;0,004
913,943;0,001
911,541;0,001
909,139;0,027
906,738;0,022
904,336;0,007
901,935;0,028
899,533;0,001
897,131;0,032
894,730;0,015
892,328;0,020
889,927;0,001
887,525;0,035
885,123;0,001
882,722;0,001
880,320;0,005
877,919;0,001
875,517;0,003
873,115;0,003
870,714;0,013
868,312;0,001
865,911;0,001
863,509;0,020
861,107;0,029
858,706;0,003
856,304;0,018
853,903;0,001
851,501;0,007
849,099;0,001
846,698;0,001
844,296;0,018
841,895;0,001
839,493;0,001
837,091;0,001
834,690;0,001
832,288;0,001
829,887;0,014
827,485;0,007
825,083;0,007
822,682;0,014
820,280;0,029
817,879;0,003
815,477;0,070
813,075;0,107
810,674;0,177
808,272;0,215
805,871;0,284
803,469;0,336
801,067;0,378
798,666;0,335
796,264;0,335
793,863;0,284
791,461;0,230
789,059;0,210
786,658;0,135
784,256;0,070
781,855;0,081
779,453;0,032
777,051;0,001
774,650;0,026
772,248;0,020
769,847;0,001
767,445;0,006
765,043;0,001
762,642;0,034
760,240;0,001
757,839;0,012
755,437;0,030
753,035;0,009
750,634;0,008
748,232;0,012
745,831;0,028
743,429;0,001
741,027;0,001
738,626;0,001
736,224;0,004
733,823;0,007
731,421;0,032
729,019;0,001
726,618;0,038
724,216;0,014
721,815;0,013
719,413;0,013
717,011;0,007
714,610;0,001
712,208;0,001
709,807;0,001
707,405;0,001
705,003;0,001
702,602;0,053
700,200;0,001
697,799;0,045
695,397;0,025
692,995;0,019
690,594;0,015
688,192;0,009
685,791;0,001
683,389;0,041
680,987;0,033
678,586;0,012
676,184;0,007
673,783;0,001
671,381;0,009
668,979;0,019
666,578;0,011
664,176;0,002
661,775;0,015
659,373;0,003
656,971;0,041
654,570;0,020
652,168;0,001
649,767;0,001
647,365;0,004
644,963;0,001
642,562;0,001
640,160;0,001
637,759;0,001
635,357;0,031
632,955;0,031
630,554;0,001
628,152;0,001
625,751;0,015
623,349;0,007
620,947;0,026
618,546;0,023
616,144;0,069
613,742;0,009
611,341;0,031
608,939;0,011
606,538;0,013
604,136;0,003
601,734;0,001
599,333;0,020
596,931;0,023
594,530;0,001
592,128;0,023
589,726;0,001
587,325;0,001
584,923;0,031
582,522;0,005
580,120;0,016
577,718;0,007
575,317;0,001
572,915;0,001
570,514;0,015
568,112;0,001
565,710;0,032
563,309;0,028
560,907;0,002
558,506;0,001
556,104;0,001
553,702;0,033
551,301;0,001
548,899;0,005
546,498;0,001
544,096;0,024
541,694;0,001
539,293;0,001
536,891;0,001
534,490;0,026
532,088;0,008
529,686;0,001
527,285;0,007
524,883;0,012
522,482;0,036
520,080;0,001
517,678;0,040
515,277;0,016
512,875;0,048
510,474;0,001
508,072;0,013
505,670;0,011
503,269;0,001
500,867;0,001
498,466;0,004
496,064;0,001
493,662;0,004
491,261;0,001
488,859;0,009
486,458;0,001
484,056;0,001
481,654;0,004
479,253;0,010
476,851;0,001
474,450;0,037
472,048;0,026
469,646;0,018
467,245;0,001
464,843;0,016
462,442;0,029
460,040;0,001
457,638;0,001
455,237;0,020
452,835;0,013
450,434;0,021
448,032;0,055
445,630;0,012
443,229;0,001
440,827;0,001
438,426;0,012
436,024;0,026
433,622;0,001
431,221;0,001
428,819;0,014
426,418;0,017
424,016;0,012
421,614;0,004
419,213;0,031
416,811;0,020
414,410;0,001
412,008;0,018
409,606;0,001
407,205;0,004
404,803;0,002
402,402;0,001
400,000;0,001
