Wavenumber,Sample1_Abs,Sample2_Abs,Sample3_Abs,Baseline,Transmittance
4000.0,0.123,0.145,0.167,0.001,95.2
3999.5,0.125,0.147,0.169,0.002,94.8
3999.0,0.127,0.149,0.171,0.003,94.5
3998.5,0.124,0.146,0.168,0.002,94.9
3998.0,0.122,0.144,0.166,0.001,95.1
3997.5,0.120,0.142,0.164,0.001,95.3
3997.0,0.118,0.140,0.162,0.002,95.0
3996.5,0.116,0.138,0.160,0.003,94.7
3996.0,0.114,0.136,0.158,0.002,94.9
3995.5,0.112,0.134,0.156,0.001,95.2