# Raman Spectroscopy Data
# Instrument: Horiba LabRAM HR Evolution
# Laser: 532 nm
# Power: 1 mW
# Integration time: 10 s
Raman_Shift_cm-1,Intensity_counts
200.0,10
202.8,10
205.5,81
208.3,68
211.0,117
213.8,126
216.5,272
219.3,10
222.0,74
224.8,244
227.5,86
230.3,10
233.0,28
235.8,126
238.5,10
241.3,58
244.0,57
246.8,135
249.5,10
252.3,10
255.0,10
257.8,10
260.6,10
263.3,10
266.1,10
268.8,10
271.6,102
274.3,10
277.1,10
279.8,228
282.6,10
285.3,10
288.1,70
290.8,275
293.6,390
296.3,10
299.1,10
301.8,112
304.6,168
307.3,10
310.1,278
312.8,131
315.6,10
318.3,10
321.1,271
323.9,10
326.6,10
329.4,397
332.1,302
334.9,70
337.6,276
340.4,147
343.1,10
345.9,58
348.6,10
351.4,10
354.1,10
356.9,29
359.6,10
362.4,10
365.1,159
367.9,10
370.6,53
373.4,314
376.1,258
378.9,10
381.7,346
384.4,10
387.2,137
389.9,127
392.7,10
395.4,70
398.2,43
400.9,10
403.7,238
406.4,254
409.2,102
411.9,55
414.7,10
417.4,10
420.2,175
422.9,75
425.7,65
428.4,46
431.2,10
433.9,90
436.7,10
439.4,10
442.2,351
445.0,75
447.7,279
450.5,338
453.2,331
456.0,754
458.7,1273
461.5,775
464.2,845
467.0,1065
469.7,1536
472.5,2573
475.2,2648
478.0,3171
480.7,3311
483.5,3645
486.2,3970
489.0,4932
491.7,4697
494.5,5015
497.2,5180
500.0,5309
502.8,5229
505.5,5173
508.3,4754
511.0,4632
513.8,4272
516.5,3815
519.3,3131
522.0,3007
524.8,2666
527.5,2345
530.3,1622
533.0,1224
535.8,1394
538.5,887
541.3,10
544.0,484
546.8,453
549.5,475
552.3,476
555.0,632
557.8,313
560.6,298
563.3,96
566.1,10
568.8,10
571.6,10
574.3,10
577.1,87
579.8,10
582.6,10
585.3,170
588.1,10
590.8,143
593.6,10
596.3,10
599.1,10
601.8,207
604.6,40
607.3,146
610.1,10
612.8,189
615.6,10
618.3,10
621.1,10
623.9,10
626.6,10
629.4,89
632.1,10
634.9,10
637.6,10
640.4,10
643.1,10
645.9,10
648.6,234
651.4,226
654.1,10
656.9,170
659.6,10
662.4,414
665.1,147
667.9,225
670.6,10
673.4,215
676.1,10
678.9,327
681.7,10
684.4,146
687.2,10
689.9,177
692.7,136
695.4,182
698.2,320
700.9,10
703.7,10
706.4,51
709.2,125
711.9,10
714.7,18
717.4,61
720.2,10
722.9,10
725.7,10
728.4,25
731.2,46
733.9,258
736.7,84
739.4,398
742.2,10
745.0,167
747.7,187
750.5,27
753.2,10
756.0,572
758.7,137
761.5,494
764.2,162
767.0,10
769.7,10
772.5,10
775.2,269
778.0,10
780.7,235
783.5,10
786.2,10
789.0,397
791.7,10
794.5,148
797.2,114
800.0,375
802.8,10
805.5,77
808.3,54
811.0,83
813.8,90
816.5,23
819.3,150
822.0,63
824.8,137
827.5,161
830.3,327
833.0,242
835.8,10
838.5,10
841.3,54
844.0,41
846.8,10
849.5,10
852.3,10
855.0,285
857.8,75
860.6,10
863.3,10
866.1,10
868.8,23
871.6,360
874.3,65
877.1,10
879.8,238
882.6,35
885.3,10
888.1,10
890.8,10
893.6,10
896.3,175
899.1,398
901.8,10
904.6,375
907.3,151
910.1,139
912.8,10
915.6,10
918.3,155
921.1,10
923.9,10
926.6,308
929.4,10
932.1,10
934.9,182
937.6,72
940.4,232
943.1,233
945.9,374
948.6,161
951.4,294
954.1,654
956.9,763
959.6,320
962.4,1066
965.1,1286
967.9,1555
970.6,2246
973.4,2699
976.1,3514
978.9,4188
981.7,4206
984.4,5060
987.2,5399
989.9,6374
992.7,6156
995.4,6990
998.2,7362
1000.9,6854
1003.7,6853
1006.4,6283
1009.2,6148
1011.9,5852
1014.7,5306
1017.4,4291
1020.2,4227
1022.9,3136
1025.7,3158
1028.4,2527
1031.2,2141
1033.9,1209
1036.7,815
1039.4,1073
1042.2,642
1045.0,505
1047.7,615
1050.5,10
1053.2,505
1056.0,125
1058.7,226
1061.5,30
1064.2,64
1067.0,10
1069.7,263
1072.5,60
1075.2,101
1078.0,101
1080.7,10
1083.5,10
1086.2,53
1089.0,202
1091.7,10
1094.5,518
1097.2,268
1100.0,10
1102.8,10
1105.5,317
1108.3,142
1111.0,61
1113.8,10
1116.5,416
1119.3,96
1122.0,85
1124.8,399
1127.5,10
1130.3,166
1133.0,108
1135.8,89
1138.5,162
1141.3,10
1144.0,10
1146.8,10
1149.5,10
1152.3,68
1155.0,449
1157.8,111
1160.6,253
1163.3,162
1166.1,10
1168.8,28
1171.6,112
1174.3,39
1177.1,21
1179.8,256
1182.6,234
1185.3,18
1188.1,261
1190.8,188
1193.6,10
1196.3,200
1199.1,10
1201.8,10
1204.6,10
1207.3,10
1210.1,10
1212.8,10
1215.6,57
1218.3,10
1221.1,10
1223.9,58
1226.6,10
1229.4,10
1232.1,10
1234.9,345
1237.6,111
1240.4,146
1243.1,112
1245.9,27
1248.6,10
1251.4,322
1254.1,10
1256.9,109
1259.6,10
1262.4,146
1265.1,10
1267.9,70
1270.6,10
1273.4,10
1276.1,10
1278.9,10
1281.7,353
1284.4,131
1287.2,473
1289.9,147
1292.7,10
1295.4,10
1298.2,39
1300.9,95
1303.7,10
1306.4,28
1309.2,10
1311.9,215
1314.7,219
1317.4,150
1320.2,272
1322.9,76
1325.7,237
1328.4,43
1331.2,108
1333.9,113
1336.7,10
1339.4,10
1342.2,49
1345.0,29
1347.7,316
1350.5,10
1353.2,174
1356.0,10
1358.7,10
1361.5,10
1364.2,25
1367.0,10
1369.7,103
1372.5,48
1375.2,10
1378.0,122
1380.7,10
1383.5,68
1386.2,591
1389.0,266
1391.7,324
1394.5,66
1397.2,10
1400.0,78
1402.8,121
1405.5,390
1408.3,38
1411.0,10
1413.8,49
1416.5,258
1419.3,137
1422.0,338
1424.8,234
1427.5,94
1430.3,10
1433.0,10
1435.8,246
1438.5,10
1441.3,10
1444.0,10
1446.8,10
1449.5,10
1452.3,10
1455.0,252
1457.8,172
1460.6,122
1463.3,80
1466.1,10
1468.8,10
1471.6,10
1474.3,10
1477.1,10
1479.8,59
1482.6,155
1485.3,10
1488.1,136
1490.8,10
1493.6,10
1496.3,10
1499.1,428
1501.8,10
1504.6,46
1507.3,61
1510.1,154
1512.8,105
1515.6,172
1518.3,10
1521.1,261
1523.9,155
1526.6,208
1529.4,10
1532.1,10
1534.9,357
1537.6,261
1540.4,10
1543.1,246
1545.9,791
1548.6,592
1551.4,1092
1554.1,736
1556.9,1401
1559.6,1618
1562.4,2046
1565.1,2601
1567.9,3497
1570.6,4161
1573.4,5023
1576.1,5426
1578.9,6198
1581.7,7250
1584.4,8211
1587.2,8811
1589.9,9168
1592.7,9651
1595.4,9922
1598.2,9895
1600.9,10056
1603.7,10281
1606.4,9998
1609.2,9603
1611.9,8972
1614.7,7884
1617.4,7120
1620.2,6728
1622.9,5793
1625.7,5118
1628.4,4037
1631.2,3040
1633.9,2795
1636.7,2401
1639.4,1913
1642.2,1493
1645.0,1015
1647.7,815
1650.5,863
1653.2,479
1656.0,425
1658.7,10
1661.5,315
1664.2,71
1667.0,381
1669.7,10
1672.5,319
1675.2,10
1678.0,111
1680.7,10
1683.5,10
1686.2,10
1689.0,10
1691.7,10
1694.5,256
1697.2,10
1700.0,10
1702.8,385
1705.5,10
1708.3,260
1711.0,233
1713.8,321
1716.5,13
1719.3,10
1722.0,254
1724.8,113
1727.5,58
1730.3,288
1733.0,10
1735.8,90
1738.5,147
1741.3,10
1744.0,96
1746.8,114
1749.5,10
1752.3,384
1755.0,10
1757.8,10
1760.6,10
1763.3,221
1766.1,10
1768.8,165
1771.6,40
1774.3,10
1777.1,193
1779.8,276
1782.6,30
1785.3,10
1788.1,56
1790.8,284
1793.6,223
1796.3,10
1799.1,10
1801.8,218
1804.6,10
1807.3,239
1810.1,11
1812.8,295
1815.6,43
1818.3,13
1821.1,206
1823.9,10
1826.6,10
1829.4,10
1832.1,221
1834.9,401
1837.6,186
1840.4,19
1843.1,230
1845.9,281
1848.6,10
1851.4,10
1854.1,220
1856.9,166
1859.6,10
1862.4,150
1865.1,10
1867.9,10
1870.6,10
1873.4,67
1876.1,77
1878.9,490
1881.7,169
1884.4,100
1887.2,103
1889.9,60
1892.7,117
1895.4,100
1898.2,10
1900.9,10
1903.7,10
1906.4,173
1909.2,10
1911.9,226
1914.7,212
1917.4,10
1920.2,10
1922.9,10
1925.7,149
1928.4,156
1931.2,10
1933.9,10
1936.7,150
1939.4,126
1942.2,10
1945.0,295
1947.7,10
1950.5,10
1953.2,137
1956.0,37
1958.7,38
1961.5,225
1964.2,138
1967.0,10
1969.7,10
1972.5,10
1975.2,10
1978.0,10
1980.7,10
1983.5,10
1986.2,10
1989.0,324
1991.7,287
1994.5,284
1997.2,163
2000.0,151
2002.8,13
2005.5,18
2008.3,119
2011.0,255
2013.8,321
2016.5,83
2019.3,10
2022.0,147
2024.8,348
2027.5,48
2030.3,18
2033.0,97
2035.8,10
2038.5,470
2041.3,338
2044.0,108
2046.8,363
2049.5,10
2052.3,603
2055.0,375
2057.8,192
2060.6,273
2063.3,216
2066.1,10
2068.8,191
2071.6,24
2074.3,365
2077.1,203
2079.8,227
2082.6,10
2085.3,109
2088.1,152
2090.8,59
2093.6,154
2096.3,10
2099.1,10
2101.8,10
2104.6,342
2107.3,22
2110.1,118
2112.8,526
2115.6,10
2118.3,175
2121.1,202
2123.9,10
2126.6,204
2129.4,336
2132.1,10
2134.9,10
2137.6,10
2140.4,574
2143.1,221
2145.9,10
2148.6,10
2151.4,273
2154.1,10
2156.9,129
2159.6,10
2162.4,10
2165.1,10
2167.9,101
2170.6,15
2173.4,526
2176.1,95
2178.9,148
2181.7,241
2184.4,10
2187.2,10
2189.9,10
2192.7,81
2195.4,214
2198.2,269
2200.9,189
2203.7,78
2206.4,10
2209.2,10
2211.9,51
2214.7,70
2217.4,10
2220.2,494
2222.9,10
2225.7,305
2228.4,293
2231.2,324
2233.9,195
2236.7,10
2239.4,242
2242.2,230
2245.0,260
2247.7,342
2250.5,289
2253.2,10
2256.0,10
2258.7,162
2261.5,261
2264.2,259
2267.0,72
2269.7,203
2272.5,172
2275.2,112
2278.0,89
2280.7,45
2283.5,209
2286.2,198
2289.0,493
2291.7,15
2294.5,66
2297.2,377
2300.0,10
2302.8,232
2305.5,148
2308.3,10
2311.0,97
2313.8,52
2316.5,74
2319.3,66
2322.0,10
2324.8,10
2327.5,113
2330.3,126
2333.0,10
2335.8,10
2338.5,10
2341.3,17
2344.0,10
2346.8,10
2349.5,114
2352.3,88
2355.0,10
2357.8,227
2360.6,10
2363.3,10
2366.1,63
2368.8,430
2371.6,136
2374.3,363
2377.1,41
2379.8,10
2382.6,338
2385.3,10
2388.1,10
2390.8,10
2393.6,631
2396.3,19
2399.1,184
2401.8,66
2404.6,53
2407.3,10
2410.1,374
2412.8,375
2415.6,120
2418.3,382
2421.1,37
2423.9,42
2426.6,10
2429.4,10
2432.1,226
2434.9,100
2437.6,235
2440.4,388
2443.1,397
2445.9,198
2448.6,107
2451.4,10
2454.1,10
2456.9,175
2459.6,200
2462.4,187
2465.1,280
2467.9,349
2470.6,583
2473.4,22
2476.1,397
2478.9,147
2481.7,152
2484.4,112
2487.2,545
2489.9,92
2492.7,10
2495.4,10
2498.2,115
2500.9,545
2503.7,10
2506.4,42
2509.2,404
2511.9,19
2514.7,435
2517.4,10
2520.2,146
2522.9,338
2525.7,10
2528.4,10
2531.2,71
2533.9,10
2536.7,342
2539.4,252
2542.2,76
2545.0,10
2547.7,143
2550.5,10
2553.2,225
2556.0,598
2558.7,46
2561.5,177
2564.2,258
2567.0,435
2569.7,225
2572.5,10
2575.2,51
2578.0,83
2580.7,128
2583.5,10
2586.2,88
2589.0,10
2591.7,247
2594.5,10
2597.2,307
2600.0,104
2602.8,377
2605.5,40
2608.3,10
2611.0,152
2613.8,229
2616.5,77
2619.3,10
2622.0,10
2624.8,141
2627.5,10
2630.3,87
2633.0,112
2635.8,502
2638.5,303
2641.3,353
2644.0,125
2646.8,295
2649.5,488
2652.3,10
2655.0,20
2657.8,307
2660.6,141
2663.3,352
2666.1,98
2668.8,171
2671.6,10
2674.3,580
2677.1,250
2679.8,126
2682.6,108
2685.3,214
2688.1,115
2690.8,296
2693.6,37
2696.3,181
2699.1,117
2701.8,292
2704.6,126
2707.3,142
2710.1,284
2712.8,327
2715.6,30
2718.3,10
2721.1,50
2723.9,344
2726.6,25
2729.4,10
2732.1,302
2734.9,378
2737.6,420
2740.4,371
2743.1,127
2745.9,159
2748.6,10
2751.4,81
2754.1,447
2756.9,317
2759.6,136
2762.4,475
2765.1,339
2767.9,434
2770.6,10
2773.4,300
2776.1,277
2778.9,10
2781.7,593
2784.4,218
2787.2,195
2789.9,10
2792.7,148
2795.4,10
2798.2,10
2800.9,538
2803.7,10
2806.4,27
2809.2,146
2811.9,105
2814.7,457
2817.4,252
2820.2,218
2822.9,10
2825.7,10
2828.4,10
2831.2,82
2833.9,10
2836.7,93
2839.4,10
2842.2,248
2845.0,290
2847.7,334
2850.5,333
2853.2,291
2856.0,10
2858.7,101
2861.5,215
2864.2,107
2867.0,64
2869.7,10
2872.5,99
2875.2,10
2878.0,185
2880.7,10
2883.5,373
2886.2,20
2889.0,148
2891.7,202
2894.5,10
2897.2,10
2900.0,10
2902.8,10
2905.5,10
2908.3,301
2911.0,457
2913.8,27
2916.5,23
2919.3,89
2922.0,75
2924.8,599
2927.5,10
2930.3,10
2933.0,361
2935.8,536
2938.5,258
2941.3,174
2944.0,140
2946.8,192
2949.5,10
2952.3,376
2955.0,262
2957.8,10
2960.6,304
2963.3,248
2966.1,42
2968.8,10
2971.6,190
2974.3,448
2977.1,179
2979.8,844
2982.6,1721
2985.3,2074
2988.1,3471
2990.8,4438
2993.6,6162
2996.3,6507
2999.1,7192
3001.8,7009
3004.6,6285
3007.3,5554
3010.1,4342
3012.8,3458
3015.6,1932
3018.3,1476
3021.1,472
3023.9,543
3026.6,336
3029.4,411
3032.1,186
3034.9,166
3037.6,112
3040.4,103
3043.1,10
3045.9,10
3048.6,10
3051.4,192
3054.1,174
3056.9,17
3059.6,727
3062.4,273
3065.1,297
3067.9,74
3070.6,10
3073.4,275
3076.1,323
3078.9,10
3081.7,299
3084.4,287
3087.2,10
3089.9,10
3092.7,48
3095.4,312
3098.2,617
3100.9,74
3103.7,275
3106.4,251
3109.2,10
3111.9,508
3114.7,10
3117.4,96
3120.2,119
3122.9,10
3125.7,451
3128.4,217
3131.2,523
3133.9,310
3136.7,312
3139.4,241
3142.2,71
3145.0,10
3147.7,51
3150.5,299
3153.2,19
3156.0,106
3158.7,161
3161.5,254
3164.2,358
3167.0,156
3169.7,444
3172.5,291
3175.2,291
3178.0,299
3180.7,52
3183.5,582
3186.2,216
3189.0,10
3191.7,163
3194.5,157
3197.2,304
3200.0,248
3202.8,73
3205.5,10
3208.3,464
3211.0,358
3213.8,271
3216.5,44
3219.3,256
3222.0,692
3224.8,10
3227.5,10
3230.3,10
3233.0,10
3235.8,105
3238.5,10
3241.3,73
3244.0,196
3246.8,10
3249.5,398
3252.3,10
3255.0,152
3257.8,23
3260.6,10
3263.3,456
3266.1,336
3268.8,325
3271.6,306
3274.3,10
3277.1,136
3279.8,10
3282.6,147
3285.3,320
3288.1,10
3290.8,166
3293.6,474
3296.3,130
3299.1,191
3301.8,180
3304.6,159
3307.3,10
3310.1,10
3312.8,163
3315.6,356
3318.3,325
3321.1,88
3323.9,331
3326.6,347
3329.4,108
3332.1,100
3334.9,147
3337.6,10
3340.4,571
3343.1,263
3345.9,285
3348.6,517
3351.4,138
3354.1,364
3356.9,10
3359.6,65
3362.4,10
3365.1,10
3367.9,326
3370.6,299
3373.4,209
3376.1,148
3378.9,10
3381.7,381
3384.4,149
3387.2,26
3389.9,348
3392.7,285
3395.4,514
3398.2,50
3400.9,266
3403.7,10
3406.4,364
3409.2,10
3411.9,51
3414.7,10
3417.4,10
3420.2,10
3422.9,367
3425.7,174
3428.4,77
3431.2,62
3433.9,10
3436.7,410
3439.4,10
3442.2,78
3445.0,199
3447.7,172
3450.5,10
3453.2,86
3456.0,221
3458.7,10
3461.5,16
3464.2,392
3467.0,63
3469.7,10
3472.5,183
3475.2,10
3478.0,19
3480.7,164
3483.5,352
3486.2,10
3489.0,10
3491.7,494
3494.5,28
3497.2,102
3500.0,21
